#DataThief C:\Users\erick\OneDrive\Documents\ucsd\Postdoc\research\thermal camera\1025nm_50mm_OD4_SP_filter_86-117_curv_84733.png Monday 14-Nov-2022 5:23:54 PM
Wavelength (nm),O.D.
32
466.25, 3.26
465.63, 3.19
466.28, 2.94
466.92, 2.67
467.56, 2.37
468.22, 2.06
468.85, 1.85
469.49, 1.78
470.12, 1.67
470.76, 1.49
471.4, 1.2
472.06, 0.8
472.72, 0.37
473.35, 0.23
473.98, 0.19
474.6, 0.15
475.23, 0.13
475.85, 0.11
476.47, 9.06e-2
477.09, 8.0e-2
476.47, 9.06e-2
475.85, 0.11
476.47, 0.1
477.09, 9.06e-2
477.71, 8.0e-2
478.34, 6.93e-2
478.96, 5.87e-2
479.58, 4.81e-2
480.2, 3.74e-2
480.81, 3.74e-2
481.44, 3.74e-2
482.06, 3.74e-2
482.68, 3.74e-2
483.3, 3.74e-2
483.92, 3.74e-2
484.54, 3.74e-2
485.17, 3.75e-2
485.79, 3.75e-2
486.41, 3.75e-2
487.03, 3.75e-2
487.65, 3.75e-2
488.27, 3.75e-2
488.89, 3.75e-2
489.51, 3.75e-2
490.13, 3.75e-2
490.75, 2.69e-2
491.37, 2.69e-2
491.99, 2.69e-2
492.6, 2.69e-2
493.23, 2.69e-2
493.85, 2.69e-2
494.48, 2.69e-2
495.1, 2.69e-2
495.72, 2.69e-2
496.34, 2.69e-2
496.96, 2.69e-2
497.58, 2.69e-2
498.2, 2.69e-2
498.81, 2.69e-2
499.44, 2.69e-2
500.06, 2.69e-2
500.68, 2.69e-2
501.3, 2.69e-2
501.92, 2.7e-2
502.54, 2.7e-2
503.16, 2.7e-2
503.78, 2.7e-2
504.4, 2.7e-2
505.03, 2.7e-2
505.65, 2.7e-2
506.27, 2.7e-2
506.89, 2.7e-2
507.51, 2.7e-2
508.13, 2.7e-2
508.75, 2.7e-2
509.37, 2.7e-2
509.99, 2.7e-2
510.6, 2.7e-2
511.23, 2.7e-2
511.85, 2.7e-2
512.47, 2.7e-2
513.09, 2.71e-2
513.71, 2.71e-2
514.33, 2.71e-2
514.95, 2.71e-2
515.56, 2.71e-2
516.2, 2.71e-2
516.81, 2.71e-2
517.44, 2.71e-2
518.06, 2.71e-2
518.68, 2.71e-2
519.3, 2.71e-2
519.92, 2.71e-2
520.54, 2.71e-2
521.16, 2.71e-2
521.78, 2.71e-2
522.4, 2.71e-2
523.02, 2.71e-2
523.64, 2.71e-2
524.26, 2.72e-2
524.88, 2.72e-2
525.5, 2.72e-2
526.12, 2.72e-2
526.75, 2.72e-2
527.37, 2.72e-2
527.99, 2.72e-2
528.6, 2.72e-2
529.23, 2.72e-2
529.85, 2.72e-2
530.47, 2.72e-2
531.09, 2.72e-2
531.71, 2.72e-2
532.33, 2.72e-2
532.95, 2.72e-2
533.56, 2.72e-2
534.19, 2.72e-2
534.81, 2.72e-2
535.43, 2.72e-2
536.05, 2.73e-2
536.67, 2.73e-2
537.3, 2.73e-2
537.92, 2.73e-2
538.54, 2.73e-2
539.16, 2.73e-2
539.78, 2.73e-2
540.4, 2.73e-2
541.02, 2.73e-2
541.64, 2.73e-2
542.26, 2.73e-2
542.88, 2.73e-2
543.5, 2.73e-2
544.12, 2.73e-2
544.74, 2.73e-2
545.35, 2.73e-2
545.98, 2.73e-2
546.6, 2.73e-2
547.22, 2.74e-2
547.85, 2.74e-2
548.47, 2.74e-2
549.09, 2.74e-2
549.71, 2.74e-2
550.33, 2.74e-2
550.95, 2.74e-2
551.56, 2.74e-2
552.19, 2.74e-2
552.81, 2.74e-2
553.43, 2.74e-2
554.05, 2.74e-2
554.67, 3.81e-2
555.29, 3.81e-2
555.91, 3.81e-2
556.53, 3.81e-2
557.15, 3.81e-2
557.77, 3.81e-2
558.39, 3.81e-2
559.01, 3.81e-2
559.64, 3.81e-2
560.26, 3.81e-2
560.88, 3.81e-2
561.5, 3.81e-2
562.12, 3.81e-2
562.74, 3.81e-2
563.35, 4.88e-2
563.98, 4.88e-2
564.6, 4.88e-2
565.22, 3.82e-2
565.83, 3.82e-2
566.46, 3.82e-2
567.08, 3.82e-2
567.7, 2.75e-2
568.32, 2.75e-2
568.95, 2.75e-2
569.56, 3.82e-2
570.19, 3.82e-2
570.81, 3.82e-2
571.43, 3.82e-2
572.05, 3.82e-2
572.67, 3.82e-2
573.29, 3.82e-2
573.91, 3.82e-2
574.53, 3.82e-2
575.15, 3.83e-2
575.77, 2.76e-2
576.39, 2.76e-2
577.01, 2.76e-2
577.63, 2.76e-2
578.25, 2.76e-2
578.87, 2.76e-2
579.49, 2.76e-2
580.12, 2.76e-2
580.74, 2.77e-2
581.35, 2.77e-2
581.98, 2.77e-2
582.6, 2.77e-2
583.22, 3.83e-2
583.83, 3.83e-2
584.46, 3.83e-2
585.08, 3.83e-2
585.7, 3.83e-2
586.32, 3.84e-2
586.94, 3.84e-2
587.56, 3.84e-2
588.18, 2.77e-2
588.8, 2.77e-2
589.42, 2.77e-2
590.04, 2.77e-2
590.67, 2.77e-2
591.29, 2.77e-2
591.91, 2.78e-2
592.53, 2.78e-2
593.15, 2.78e-2
593.77, 2.78e-2
594.39, 2.78e-2
595.01, 2.78e-2
595.63, 2.78e-2
596.25, 2.78e-2
596.87, 2.78e-2
597.49, 2.78e-2
598.11, 2.78e-2
598.73, 2.78e-2
599.35, 2.78e-2
599.97, 2.78e-2
600.58, 2.78e-2
601.22, 2.78e-2
601.83, 2.78e-2
602.46, 2.78e-2
603.08, 2.78e-2
603.7, 3.85e-2
604.32, 3.85e-2
604.94, 3.85e-2
605.56, 3.85e-2
606.18, 3.85e-2
606.8, 3.85e-2
607.42, 3.85e-2
608.04, 3.85e-2
608.66, 2.79e-2
609.28, 2.79e-2
609.9, 2.79e-2
610.52, 2.79e-2
611.14, 2.79e-2
611.77, 2.79e-2
612.39, 2.79e-2
613.01, 2.79e-2
613.63, 2.79e-2
614.25, 2.79e-2
614.87, 2.8e-2
615.49, 2.8e-2
616.11, 2.8e-2
616.73, 2.8e-2
617.35, 2.8e-2
617.97, 2.8e-2
618.58, 2.8e-2
619.21, 2.8e-2
619.83, 2.8e-2
620.45, 2.8e-2
621.07, 2.8e-2
621.69, 2.8e-2
622.32, 2.8e-2
622.94, 2.8e-2
623.56, 2.8e-2
624.18, 2.8e-2
624.8, 2.8e-2
625.42, 2.8e-2
626.04, 2.81e-2
626.66, 2.81e-2
627.28, 2.81e-2
627.9, 2.81e-2
628.52, 2.81e-2
629.14, 2.81e-2
629.76, 2.81e-2
630.38, 2.81e-2
631.0, 2.81e-2
631.62, 2.81e-2
632.24, 2.81e-2
632.85, 2.81e-2
633.49, 2.81e-2
634.11, 2.81e-2
634.73, 2.81e-2
635.35, 2.81e-2
635.97, 2.81e-2
636.58, 2.81e-2
637.21, 2.82e-2
637.83, 2.82e-2
638.45, 2.82e-2
639.07, 2.82e-2
639.69, 2.82e-2
640.31, 2.82e-2
640.93, 2.82e-2
641.55, 2.82e-2
642.17, 2.82e-2
642.79, 2.82e-2
643.41, 2.82e-2
644.04, 2.82e-2
644.66, 2.82e-2
645.28, 2.82e-2
645.9, 2.82e-2
646.52, 2.82e-2
647.14, 2.82e-2
647.76, 2.82e-2
648.38, 3.89e-2
649.0, 3.89e-2
649.62, 3.89e-2
650.24, 3.89e-2
650.85, 3.89e-2
651.48, 2.83e-2
652.1, 2.83e-2
652.72, 2.83e-2
653.34, 2.83e-2
653.97, 1.77e-2
654.58, 2.83e-2
655.21, 2.83e-2
655.83, 2.83e-2
656.45, 2.83e-2
657.07, 2.83e-2
657.69, 2.83e-2
658.31, 2.83e-2
658.93, 2.83e-2
659.55, 2.84e-2
660.17, 2.84e-2
660.79, 2.84e-2
661.41, 2.84e-2
662.03, 2.84e-2
662.65, 2.84e-2
663.27, 2.84e-2
663.9, 1.77e-2
664.51, 2.84e-2
665.14, 2.84e-2
665.76, 2.84e-2
666.38, 2.84e-2
667.0, 2.84e-2
667.62, 2.84e-2
668.24, 2.84e-2
668.85, 2.84e-2
669.48, 2.84e-2
670.1, 2.84e-2
670.72, 2.84e-2
671.34, 2.85e-2
671.96, 2.85e-2
672.58, 2.85e-2
673.2, 2.85e-2
673.81, 2.85e-2
674.44, 2.85e-2
675.06, 2.85e-2
675.69, 2.85e-2
676.31, 2.85e-2
676.93, 2.85e-2
677.55, 2.85e-2
678.17, 1.79e-2
678.79, 1.79e-2
679.41, 2.85e-2
680.03, 2.85e-2
680.65, 3.92e-2
681.27, 3.92e-2
681.89, 3.92e-2
682.51, 3.92e-2
683.13, 3.92e-2
683.75, 3.92e-2
684.37, 3.92e-2
684.99, 3.92e-2
685.6, 3.92e-2
686.23, 3.92e-2
686.85, 2.86e-2
687.48, 2.86e-2
688.1, 2.86e-2
688.72, 2.86e-2
689.34, 2.86e-2
689.96, 2.86e-2
690.58, 2.86e-2
691.2, 2.86e-2
691.81, 2.86e-2
692.44, 2.86e-2
693.06, 2.86e-2
693.68, 2.87e-2
694.3, 2.87e-2
694.92, 2.87e-2
695.54, 2.87e-2
696.17, 1.8e-2
696.79, 1.8e-2
697.41, 2.87e-2
698.03, 2.87e-2
698.65, 3.93e-2
699.27, 3.94e-2
699.89, 3.94e-2
700.51, 3.94e-2
701.13, 3.94e-2
701.75, 3.94e-2
702.37, 3.94e-2
702.99, 3.94e-2
703.6, 3.94e-2
704.23, 2.87e-2
704.85, 2.88e-2
705.47, 2.88e-2
706.09, 2.88e-2
706.72, 1.81e-2
707.33, 2.88e-2
707.96, 2.88e-2
708.58, 2.88e-2
709.2, 2.88e-2
709.81, 2.88e-2
710.44, 2.88e-2
711.06, 2.88e-2
711.68, 2.88e-2
712.3, 2.88e-2
712.92, 2.88e-2
713.54, 2.88e-2
714.16, 2.88e-2
714.78, 2.88e-2
715.4, 1.82e-2
716.02, 2.89e-2
716.64, 2.89e-2
717.26, 2.89e-2
717.88, 2.89e-2
718.51, 2.89e-2
719.13, 2.89e-2
719.75, 2.89e-2
720.37, 2.89e-2
720.99, 2.89e-2
721.6, 2.89e-2
722.23, 2.89e-2
722.85, 2.89e-2
723.47, 2.89e-2
724.09, 2.89e-2
724.71, 1.83e-2
725.33, 1.83e-2
725.95, 1.83e-2
726.56, 2.89e-2
727.19, 2.9e-2
727.81, 2.9e-2
728.43, 2.9e-2
729.06, 2.9e-2
729.68, 2.9e-2
730.3, 2.9e-2
730.92, 2.9e-2
731.54, 2.9e-2
732.16, 2.9e-2
732.78, 2.9e-2
733.4, 2.9e-2
734.02, 2.9e-2
734.64, 1.84e-2
735.26, 1.84e-2
735.88, 1.84e-2
736.5, 2.9e-2
737.12, 2.9e-2
737.74, 2.9e-2
738.35, 2.91e-2
738.98, 2.91e-2
739.6, 2.91e-2
740.23, 2.91e-2
740.85, 2.91e-2
741.47, 2.91e-2
742.09, 2.91e-2
742.71, 2.91e-2
743.33, 2.91e-2
743.95, 2.91e-2
744.56, 2.91e-2
745.19, 1.85e-2
745.81, 1.85e-2
746.43, 1.85e-2
747.05, 2.91e-2
747.67, 2.91e-2
748.29, 2.91e-2
748.91, 2.91e-2
749.53, 2.91e-2
750.16, 2.92e-2
750.78, 2.92e-2
751.4, 2.92e-2
752.02, 2.92e-2
752.64, 2.92e-2
753.26, 2.92e-2
753.88, 2.92e-2
754.5, 2.92e-2
755.12, 1.85e-2
755.74, 1.86e-2
756.35, 1.86e-2
756.98, 2.92e-2
757.6, 2.92e-2
758.22, 2.92e-2
758.83, 2.92e-2
759.46, 2.92e-2
760.08, 2.92e-2
760.7, 2.92e-2
761.33, 2.93e-2
761.95, 2.93e-2
762.56, 2.93e-2
763.19, 2.93e-2
763.81, 2.93e-2
764.43, 2.93e-2
765.05, 2.93e-2
765.67, 2.93e-2
766.29, 1.86e-2
766.91, 1.87e-2
767.53, 1.87e-2
768.15, 2.93e-2
768.77, 2.93e-2
769.39, 2.93e-2
770.01, 2.93e-2
770.63, 2.93e-2
771.25, 2.93e-2
771.88, 2.93e-2
772.5, 2.94e-2
773.12, 2.94e-2
773.74, 2.94e-2
774.35, 2.94e-2
774.98, 2.94e-2
775.6, 2.94e-2
776.22, 2.94e-2
776.83, 1.87e-2
777.46, 1.87e-2
778.08, 1.88e-2
778.7, 2.94e-2
779.32, 2.94e-2
779.94, 2.94e-2
780.56, 2.94e-2
781.18, 2.94e-2
781.8, 2.94e-2
782.43, 2.94e-2
783.05, 2.94e-2
783.67, 2.95e-2
784.29, 2.95e-2
784.91, 2.95e-2
785.53, 2.95e-2
786.15, 2.95e-2
786.77, 2.95e-2
787.39, 2.95e-2
788.01, 2.95e-2
788.63, 2.95e-2
789.25, 1.89e-2
789.87, 1.89e-2
790.49, 1.89e-2
791.11, 2.95e-2
791.73, 2.95e-2
792.35, 2.95e-2
792.98, 2.95e-2
793.6, 2.95e-2
794.22, 2.95e-2
794.83, 2.96e-2
795.46, 2.96e-2
796.08, 2.96e-2
796.7, 2.96e-2
797.32, 2.96e-2
797.94, 2.96e-2
798.56, 2.96e-2
799.18, 2.96e-2
799.8, 2.96e-2
800.42, 2.96e-2
801.04, 2.96e-2
801.66, 2.96e-2
802.28, 2.96e-2
802.9, 2.96e-2
803.53, 2.96e-2
804.15, 2.96e-2
804.77, 2.96e-2
805.39, 2.96e-2
806.01, 2.97e-2
806.63, 2.97e-2
807.25, 2.97e-2
807.87, 2.97e-2
808.49, 2.97e-2
809.11, 2.97e-2
809.73, 2.97e-2
810.35, 2.97e-2
810.97, 2.97e-2
811.58, 2.97e-2
812.21, 2.97e-2
812.83, 2.97e-2
813.45, 2.97e-2
814.07, 2.97e-2
814.7, 2.97e-2
815.32, 2.97e-2
815.94, 2.97e-2
816.56, 2.97e-2
817.18, 2.97e-2
817.8, 2.98e-2
818.42, 2.98e-2
819.04, 2.98e-2
819.66, 2.98e-2
820.28, 2.98e-2
820.9, 2.98e-2
821.52, 2.98e-2
822.14, 2.98e-2
822.76, 2.98e-2
823.38, 2.98e-2
824.0, 2.98e-2
824.62, 2.98e-2
825.25, 2.98e-2
825.87, 2.98e-2
826.49, 2.98e-2
827.11, 2.98e-2
827.73, 2.98e-2
828.35, 2.98e-2
828.97, 2.99e-2
829.58, 2.99e-2
830.21, 2.99e-2
830.83, 2.99e-2
831.45, 2.99e-2
832.07, 2.99e-2
832.69, 2.99e-2
833.31, 2.99e-2
833.93, 2.99e-2
834.55, 2.99e-2
835.17, 2.99e-2
835.8, 2.99e-2
836.42, 2.99e-2
837.04, 2.99e-2
837.66, 2.99e-2
838.28, 2.99e-2
838.9, 2.99e-2
839.52, 2.99e-2
840.14, 3.0e-2
840.76, 3.0e-2
841.38, 3.0e-2
842.0, 3.0e-2
842.62, 3.0e-2
843.24, 3.0e-2
843.85, 3.0e-2
844.48, 3.0e-2
845.1, 3.0e-2
845.72, 3.0e-2
846.35, 3.0e-2
846.97, 3.0e-2
847.58, 3.0e-2
848.21, 3.0e-2
848.83, 3.0e-2
849.45, 3.0e-2
850.07, 3.0e-2
850.69, 3.0e-2
851.31, 3.01e-2
851.93, 1.94e-2
852.55, 1.94e-2
853.17, 1.94e-2
853.79, 1.94e-2
854.41, 3.01e-2
855.03, 3.01e-2
855.65, 3.01e-2
856.27, 3.01e-2
856.9, 3.01e-2
857.52, 3.01e-2
858.14, 3.01e-2
858.76, 3.01e-2
859.38, 3.01e-2
860.0, 3.01e-2
860.62, 3.01e-2
861.24, 3.01e-2
861.85, 3.01e-2
862.48, 3.02e-2
863.1, 3.02e-2
863.72, 3.02e-2
864.34, 3.02e-2
864.96, 3.02e-2
865.58, 3.02e-2
866.2, 3.02e-2
866.81, 3.02e-2
867.45, 3.02e-2
868.07, 3.02e-2
868.69, 3.02e-2
869.31, 3.02e-2
869.93, 3.02e-2
870.55, 3.02e-2
871.17, 3.02e-2
871.79, 3.02e-2
872.41, 3.02e-2
873.03, 3.02e-2
873.65, 3.03e-2
874.27, 3.03e-2
874.89, 3.03e-2
875.51, 3.03e-2
876.13, 3.03e-2
876.75, 3.03e-2
877.37, 3.03e-2
877.99, 3.03e-2
878.62, 3.03e-2
879.24, 3.03e-2
879.85, 3.03e-2
880.48, 3.03e-2
881.1, 3.03e-2
881.72, 3.03e-2
882.34, 3.03e-2
882.96, 3.03e-2
883.58, 3.03e-2
884.2, 3.03e-2
884.81, 3.03e-2
885.44, 3.04e-2
886.06, 3.04e-2
886.68, 3.04e-2
887.3, 3.04e-2
887.92, 3.04e-2
888.54, 3.04e-2
889.17, 3.04e-2
889.79, 3.04e-2
890.41, 3.04e-2
891.03, 3.04e-2
891.65, 3.04e-2
892.27, 3.04e-2
892.89, 3.04e-2
893.51, 3.04e-2
894.13, 3.04e-2
894.75, 3.04e-2
895.37, 3.04e-2
895.99, 3.04e-2
896.6, 3.05e-2
897.23, 3.05e-2
897.85, 3.05e-2
898.47, 3.05e-2
899.09, 3.05e-2
899.72, 3.05e-2
900.34, 3.05e-2
900.96, 3.05e-2
901.58, 3.05e-2
902.2, 3.05e-2
902.81, 3.05e-2
903.44, 3.05e-2
904.06, 3.05e-2
904.68, 3.05e-2
905.3, 3.05e-2
905.92, 3.05e-2
906.54, 3.05e-2
907.16, 3.05e-2
907.78, 3.06e-2
908.4, 3.06e-2
909.02, 3.06e-2
909.64, 3.06e-2
910.27, 3.06e-2
910.89, 3.06e-2
911.51, 3.06e-2
912.13, 3.06e-2
912.75, 3.06e-2
913.37, 3.06e-2
913.99, 3.06e-2
914.6, 3.06e-2
915.23, 3.06e-2
915.85, 3.06e-2
916.47, 3.06e-2
917.09, 3.06e-2
917.71, 3.06e-2
918.33, 3.06e-2
918.95, 3.07e-2
919.56, 3.07e-2
920.19, 3.07e-2
920.81, 3.07e-2
921.44, 3.07e-2
922.06, 3.07e-2
922.68, 3.07e-2
923.3, 3.07e-2
923.92, 3.07e-2
924.54, 3.07e-2
925.16, 3.07e-2
925.78, 3.07e-2
926.4, 3.07e-2
927.02, 3.07e-2
927.64, 3.07e-2
928.26, 3.07e-2
928.88, 3.07e-2
929.5, 3.07e-2
930.12, 3.08e-2
930.74, 3.08e-2
931.37, 3.08e-2
931.99, 3.08e-2
932.6, 3.08e-2
933.23, 3.08e-2
933.85, 3.08e-2
934.47, 3.08e-2
935.09, 3.08e-2
935.71, 3.08e-2
936.33, 3.08e-2
936.95, 3.08e-2
937.56, 3.08e-2
938.19, 3.08e-2
938.81, 3.08e-2
939.43, 3.08e-2
940.05, 3.08e-2
940.67, 3.08e-2
941.29, 3.09e-2
941.91, 3.09e-2
942.54, 3.09e-2
943.16, 3.09e-2
943.78, 3.09e-2
944.4, 3.09e-2
945.02, 3.09e-2
945.64, 3.09e-2
946.26, 3.09e-2
946.88, 3.09e-2
947.5, 3.09e-2
948.12, 3.09e-2
948.74, 3.09e-2
949.35, 3.09e-2
949.98, 3.09e-2
950.6, 3.09e-2
951.22, 3.09e-2
951.83, 3.09e-2
952.46, 3.1e-2
953.09, 3.1e-2
953.71, 3.1e-2
954.33, 3.1e-2
954.95, 3.1e-2
955.56, 3.1e-2
956.19, 3.1e-2
956.81, 3.1e-2
957.43, 3.1e-2
958.05, 3.1e-2
958.67, 3.1e-2
959.29, 3.1e-2
959.91, 3.1e-2
960.53, 3.1e-2
961.15, 2.04e-2
961.77, 2.04e-2
962.4, 2.04e-2
963.02, 2.04e-2
963.64, 2.04e-2
964.26, 2.04e-2
964.88, 2.04e-2
965.5, 2.04e-2
966.12, 2.04e-2
966.74, 2.04e-2
967.35, 2.04e-2
967.98, 2.04e-2
968.6, 2.04e-2
969.22, 2.04e-2
969.83, 2.05e-2
970.46, 2.05e-2
971.08, 2.05e-2
971.7, 2.05e-2
972.32, 2.05e-2
972.94, 2.05e-2
973.56, 2.05e-2
974.19, 2.05e-2
974.81, 2.05e-2
975.43, 2.05e-2
976.05, 2.05e-2
976.67, 2.05e-2
977.29, 2.05e-2
977.91, 2.05e-2
978.53, 2.05e-2
979.15, 2.05e-2
979.77, 2.05e-2
980.39, 2.05e-2
981.01, 2.06e-2
981.63, 2.06e-2
982.25, 2.06e-2
982.87, 2.06e-2
983.49, 2.06e-2
984.11, 3.12e-2
984.74, 3.12e-2
985.35, 3.12e-2
985.98, 3.12e-2
986.6, 3.13e-2
987.22, 3.13e-2
987.83, 3.13e-2
988.46, 3.13e-2
989.08, 3.13e-2
989.7, 3.13e-2
990.32, 3.13e-2
990.94, 3.13e-2
991.56, 3.13e-2
992.18, 4.2e-2
992.8, 7.39e-2
993.4, 0.23
994.01, 0.35
994.62, 0.48
995.23, 0.62
995.83, 0.76
996.45, 0.88
997.05, 1.02
997.66, 1.15
998.27, 1.28
998.88, 1.39
999.49, 1.51
1.0e3, 1.62
1.0e3, 1.72
1.0e3, 1.81
1.0e3, 1.92
1.0e3, 2.01
1.0e3, 2.09
1.0e3, 2.17
1.0e3, 2.26
1.0e3, 2.34
1.01e3, 2.42
1.01e3, 2.49
1.01e3, 2.56
1.01e3, 2.63
1.01e3, 2.7
1.01e3, 2.78
1.01e3, 2.83
1.01e3, 2.92
1.01e3, 2.99
1.01e3, 3.06
1.01e3, 3.13
1.01e3, 3.19
1.01e3, 3.27
1.01e3, 3.33
1.01e3, 3.41
1.01e3, 3.48
1.02e3, 3.56
1.02e3, 3.63
1.02e3, 3.69
1.02e3, 3.77
1.02e3, 3.83
1.02e3, 3.91
1.02e3, 3.98
1.02e3, 4.06
1.02e3, 4.12
1.02e3, 4.18
1.02e3, 4.25
1.02e3, 4.31
1.02e3, 4.38
1.02e3, 4.44
1.02e3, 4.5
1.02e3, 4.56
1.03e3, 4.6
1.03e3, 4.66
1.03e3, 4.72
1.03e3, 4.77
1.03e3, 4.81
1.03e3, 4.87
1.03e3, 4.92
1.03e3, 4.96
1.03e3, 5.01
1.03e3, 5.05
1.03e3, 5.09
1.03e3, 5.13
1.03e3, 5.16
1.03e3, 5.21
1.03e3, 5.24
1.03e3, 5.27
1.04e3, 5.3
1.04e3, 5.34
1.04e3, 5.37
1.04e3, 5.4
1.04e3, 5.42
1.04e3, 5.44
1.04e3, 5.47
1.04e3, 5.49
1.04e3, 5.52
1.04e3, 5.54
1.04e3, 5.56
1.04e3, 5.58
1.04e3, 5.6
1.04e3, 5.63
1.04e3, 5.65
1.04e3, 5.67
1.05e3, 5.69
1.05e3, 5.71
1.05e3, 5.73
1.05e3, 5.75
1.05e3, 5.77
1.05e3, 5.8
1.05e3, 5.83
1.05e3, 5.85
1.05e3, 5.89
1.05e3, 5.92
1.05e3, 5.95
1.05e3, 6.0
1.05e3, 6.03
1.05e3, 6.07
1.05e3, 6.11
1.05e3, 6.14
1.05e3, 6.19
1.06e3, 6.23
1.06e3, 6.27
1.06e3, 6.32
1.06e3, 6.35
1.06e3, 6.39
1.06e3, 6.43
1.06e3, 6.47
1.06e3, 6.51
1.06e3, 6.55
1.06e3, 6.58
1.06e3, 6.6
1.06e3, 6.66
1.06e3, 6.69
1.06e3, 6.72
1.06e3, 6.75
1.06e3, 6.77
1.07e3, 6.81
1.07e3, 6.83
1.07e3, 6.85
1.07e3, 6.89
1.07e3, 6.91
1.07e3, 6.93
1.07e3, 6.96
1.07e3, 6.98
1.07e3, 6.99
1.07e3, 7.02
1.07e3, 7.02
1.07e3, 7.03
1.07e3, 7.04
1.07e3, 7.05
1.07e3, 7.07
1.07e3, 7.07
1.08e3, 7.07
1.08e3, 7.07
1.08e3, 7.08
1.08e3, 7.08
1.08e3, 7.08
1.08e3, 7.08
1.08e3, 7.08
1.08e3, 7.08
1.08e3, 7.08
1.08e3, 7.07
1.08e3, 7.07
1.08e3, 7.06
1.08e3, 7.05
1.08e3, 7.05
1.08e3, 7.04
1.08e3, 7.03
1.09e3, 7.03
1.09e3, 7.02
1.09e3, 7.02
1.09e3, 7.02
1.09e3, 7.02
1.09e3, 7.01
1.09e3, 7.01
1.09e3, 7.01
1.09e3, 7.02
1.09e3, 7.03
1.09e3, 7.04
1.09e3, 7.04
1.09e3, 7.07
1.09e3, 7.11
1.09e3, 7.17
1.09e3, 7.2
1.1e3, 7.23
1.1e3, 7.26
1.1e3, 7.3
1.1e3, 7.33
1.1e3, 7.35
1.1e3, 7.39
1.1e3, 7.42
1.1e3, 7.47
1.1e3, 7.49
1.1e3, 7.52
1.1e3, 7.55
1.1e3, 7.58
1.1e3, 7.6
1.1e3, 7.64
1.1e3, 7.66
1.1e3, 7.69
1.11e3, 7.71
1.11e3, 7.74
1.11e3, 7.75
1.11e3, 7.76
1.11e3, 7.79
1.11e3, 7.8
1.11e3, 7.83
1.11e3, 7.83
1.11e3, 7.85
1.11e3, 7.85
1.11e3, 7.85
1.11e3, 7.85
1.11e3, 7.85
1.11e3, 7.85
1.11e3, 7.85
1.11e3, 7.85
1.11e3, 7.85
1.12e3, 7.85
1.12e3, 7.85
1.12e3, 7.85
1.12e3, 7.85
1.12e3, 7.83
1.12e3, 7.83
1.12e3, 7.83
1.12e3, 7.81
1.12e3, 7.81
1.12e3, 7.8
1.12e3, 7.77
1.12e3, 7.73
1.12e3, 7.7
1.12e3, 7.68
1.12e3, 7.65
1.12e3, 7.62
1.13e3, 7.58
1.13e3, 7.56
1.13e3, 7.53
1.13e3, 7.5
1.13e3, 7.47
1.13e3, 7.43
1.13e3, 7.4
1.13e3, 7.37
1.13e3, 7.34
1.13e3, 7.32
1.13e3, 7.31
1.13e3, 7.28
1.13e3, 7.31
1.13e3, 7.34
1.13e3, 7.35
1.13e3, 7.37
1.14e3, 7.39
1.14e3, 7.41
1.14e3, 7.44
1.14e3, 7.49
1.14e3, 7.52
1.14e3, 7.56
1.14e3, 7.6
1.14e3, 7.65
1.14e3, 7.68
1.14e3, 7.72
1.14e3, 7.75
1.14e3, 7.79
1.14e3, 7.81
1.14e3, 7.85
1.14e3, 7.88
1.14e3, 7.9
1.15e3, 7.92
1.15e3, 7.95
1.15e3, 7.97
1.15e3, 8.0
1.15e3, 8.0
1.15e3, 8.01
1.15e3, 8.03
1.15e3, 8.04
1.15e3, 8.04
1.15e3, 8.04
1.15e3, 8.04
1.15e3, 8.04
1.15e3, 8.04
1.15e3, 8.04
1.15e3, 8.04
1.15e3, 8.02
1.16e3, 8.02
1.16e3, 8.03
1.16e3, 8.0
1.16e3, 7.96
1.16e3, 7.92
1.16e3, 7.9
1.16e3, 7.87
1.16e3, 7.83
1.16e3, 7.8
1.16e3, 7.74
1.16e3, 7.7
1.16e3, 7.64
1.16e3, 7.56
1.16e3, 7.5
1.16e3, 7.41
1.16e3, 7.33
1.17e3, 7.23
1.17e3, 7.15
1.17e3, 7.04
1.17e3, 6.98
1.17e3, 6.96
1.17e3, 6.94
1.17e3, 6.99
1.17e3, 7.04
1.17e3, 7.05
1.17e3, 7.06
1.17e3, 7.06
1.17e3, 7.07
1.17e3, 7.08
1.17e3, 7.09
1.17e3, 7.17
1.17e3, 7.3
1.17e3, 7.42
1.17e3, 7.54
1.17e3, 7.66
1.17e3, 7.75
1.17e3, 7.85
1.17e3, 7.93
1.18e3, 8.02
1.18e3, 8.08
1.18e3, 8.16
1.18e3, 8.22
1.18e3, 8.29
1.18e3, 8.34
1.18e3, 8.39
1.18e3, 8.45
1.18e3, 8.5
1.18e3, 8.54
1.18e3, 8.58
1.18e3, 8.63
1.18e3, 8.67
1.18e3, 8.71
1.18e3, 8.74
1.18e3, 8.78
1.18e3, 8.81
1.19e3, 8.83
1.19e3, 8.87
1.19e3, 8.9
1.19e3, 8.93
1.19e3, 8.96
1.19e3, 8.98
1.19e3, 9.0
1.19e3, 9.02
1.19e3, 9.04
1.19e3, 9.07
1.19e3, 9.09
1.19e3, 9.1
1.19e3, 9.13
1.19e3, 9.14
1.19e3, 9.16
1.19e3, 9.17
1.2e3, 9.18
1.2e3, 9.19
1.2e3, 9.2
1.2e3, 9.2
1.2e3, 9.21
1.2e3, 9.22
1.2e3, 9.22
1.2e3, 9.23
1.2e3, 9.23
1.2e3, 9.25
1.2e3, 9.25
1.2e3, 9.26
1.2e3, 9.26
1.2e3, 9.26
1.2e3, 9.27
1.2e3, 9.27
1.21e3, 9.27
1.21e3, 9.27
1.21e3, 9.27
1.21e3, 9.27
1.21e3, 9.27
1.21e3, 9.27
1.21e3, 9.27
1.21e3, 9.27
1.21e3, 9.26
1.21e3, 9.26
1.21e3, 9.25
1.21e3, 9.25
1.21e3, 9.23
1.21e3, 9.22
1.21e3, 9.22
1.21e3, 9.21
1.22e3, 9.2
1.22e3, 9.19
1.22e3, 9.18
1.22e3, 9.17
1.22e3, 9.16
1.22e3, 9.15
1.22e3, 9.14
1.22e3, 9.13
1.22e3, 9.11
1.22e3, 9.1
1.22e3, 9.09
1.22e3, 9.06
1.22e3, 9.05
1.22e3, 9.03
1.22e3, 9.02
1.22e3, 9.0
1.23e3, 8.98
1.23e3, 8.96
1.23e3, 8.94
1.23e3, 8.93
1.23e3, 8.9
1.23e3, 8.87
1.23e3, 8.85
1.23e3, 8.83
1.23e3, 8.81
1.23e3, 8.79
1.23e3, 8.76
1.23e3, 8.73
1.23e3, 8.7
1.23e3, 8.68
1.23e3, 8.65
1.23e3, 8.62
1.24e3, 8.58
1.24e3, 8.55
1.24e3, 8.52
1.24e3, 8.49
1.24e3, 8.46
1.24e3, 8.43
1.24e3, 8.38
1.24e3, 8.35
1.24e3, 8.31
1.24e3, 8.28
1.24e3, 8.23
1.24e3, 8.19
1.24e3, 8.15
1.24e3, 8.11
1.24e3, 8.06
1.24e3, 8.01
1.25e3, 7.97
1.25e3, 7.91
1.25e3, 7.85
1.25e3, 7.81
1.25e3, 7.75
1.25e3, 7.7
1.25e3, 7.64
1.25e3, 7.56
1.25e3, 7.51
1.25e3, 7.45
1.25e3, 7.37
1.25e3, 7.3
1.25e3, 7.22
1.25e3, 7.15
1.25e3, 7.05
1.25e3, 6.97
1.26e3, 6.87
1.26e3, 6.76
1.26e3, 6.66
1.26e3, 6.53
1.26e3, 6.4
1.26e3, 6.25
1.26e3, 6.08
1.26e3, 5.89
1.26e3, 5.65
1.26e3, 5.27
1.26e3, 4.9
1.26e3, 4.53
1.26e3, 4.35
1.26e3, 4.56
1.26e3, 4.78
1.26e3, 5.01
1.27e3, 5.22
1.27e3, 5.43
1.27e3, 5.66
1.27e3, 5.85
1.27e3, 5.92
1.27e3, 5.98
1.27e3, 6.03
1.27e3, 6.07
1.27e3, 6.1
1.27e3, 6.14
1.27e3, 6.17
1.27e3, 6.18
1.27e3, 6.18
1.27e3, 6.19
1.27e3, 6.19
1.27e3, 6.19
1.27e3, 6.18
1.27e3, 6.18
1.28e3, 6.18
1.28e3, 6.17
1.28e3, 6.15
1.28e3, 6.13
1.28e3, 6.09
1.28e3, 6.06
1.28e3, 6.03
1.28e3, 6.0
1.28e3, 5.97
1.28e3, 5.92
1.28e3, 5.88
1.28e3, 5.83
1.28e3, 5.77
1.28e3, 5.71
1.28e3, 5.65
1.28e3, 5.56
1.29e3, 5.49
1.29e3, 5.39
1.29e3, 5.29
1.29e3, 5.19
1.29e3, 5.05
1.29e3, 4.91
1.29e3, 4.75
1.29e3, 4.63
1.29e3, 4.44
1.29e3, 4.35
1.29e3, 4.4
1.29e3, 4.5
1.29e3, 4.58
1.29e3, 4.69
1.29e3, 4.78
1.29e3, 4.88
1.3e3, 4.96
1.3e3, 5.09
1.3e3, 5.18
1.3e3, 5.25
1.3e3, 5.32
1.3e3, 5.37
1.3e3, 5.42
1.3e3, 5.48
1.3e3, 5.51
1.3e3, 5.55
1.3e3, 5.58
1.3e3, 5.6
1.3e3, 5.64
1.3e3, 5.66
1.3e3, 5.67
1.3e3, 5.7
1.31e3, 5.71
1.31e3, 5.71
1.31e3, 5.72
1.31e3, 5.72
1.31e3, 5.72
1.31e3, 5.72
1.31e3, 5.72
1.31e3, 5.72
1.31e3, 5.7
1.31e3, 5.69
1.31e3, 5.69
1.31e3, 5.7
1.31e3, 5.68
1.31e3, 5.64
1.31e3, 5.6
1.31e3, 5.58
1.31e3, 5.56
1.32e3, 5.53
1.32e3, 5.51
1.32e3, 5.48
1.32e3, 5.44
1.32e3, 5.4
1.32e3, 5.35
1.32e3, 5.32
1.32e3, 5.27
1.32e3, 5.23
1.32e3, 5.18
1.32e3, 5.11
1.32e3, 5.06
1.32e3, 4.99
1.32e3, 4.92
1.32e3, 4.85
1.32e3, 4.77
1.33e3, 4.7
1.33e3, 4.62
1.33e3, 4.55
1.33e3, 4.48
1.33e3, 4.4
1.33e3, 4.33
1.33e3, 4.26
1.33e3, 4.23
1.33e3, 4.26
1.33e3, 4.33
1.33e3, 4.38
1.33e3, 4.43
1.33e3, 4.5
1.33e3, 4.54
1.33e3, 4.58
1.33e3, 4.66
1.34e3, 4.69
1.34e3, 4.75
1.34e3, 4.81
1.34e3, 4.85
1.34e3, 4.9
1.34e3, 4.93
1.34e3, 4.98
1.34e3, 5.01
1.34e3, 5.04
1.34e3, 5.07
1.34e3, 5.09
1.34e3, 5.11
1.34e3, 5.14
1.34e3, 5.15
1.34e3, 5.18
1.34e3, 5.19
1.35e3, 5.2
1.35e3, 5.2
1.35e3, 5.2
1.35e3, 5.2
1.35e3, 5.2
1.35e3, 5.21
1.35e3, 5.21
1.35e3, 5.21
1.35e3, 5.21
1.35e3, 5.21
1.35e3, 5.2
1.35e3, 5.19
1.35e3, 5.18
1.35e3, 5.17
1.35e3, 5.16
1.35e3, 5.16
1.36e3, 5.15
1.36e3, 5.14
1.36e3, 5.11
1.36e3, 5.08
1.36e3, 5.06
1.36e3, 5.03
1.36e3, 5.01
1.36e3, 4.99
1.36e3, 4.95
1.36e3, 4.92
1.36e3, 4.89
1.36e3, 4.87
1.36e3, 4.83
1.36e3, 4.79
1.36e3, 4.75
1.36e3, 4.72
1.37e3, 4.68
1.37e3, 4.64
1.37e3, 4.58
1.37e3, 4.55
1.37e3, 4.5
1.37e3, 4.44
1.37e3, 4.39
1.37e3, 4.34
1.37e3, 4.27
1.37e3, 4.22
1.37e3, 4.16
1.37e3, 4.09
1.37e3, 4.05
1.37e3, 3.99
1.37e3, 3.92
1.37e3, 3.85
1.38e3, 3.83
1.38e3, 3.83
1.38e3, 3.81
1.38e3, 3.79
1.38e3, 3.78
1.38e3, 3.83
1.38e3, 3.85
1.38e3, 3.89
1.38e3, 3.92
1.38e3, 3.95
1.38e3, 3.99
1.38e3, 4.02
1.38e3, 4.06
1.38e3, 4.11
1.38e3, 4.15
1.38e3, 4.18
1.39e3, 4.21
1.39e3, 4.23
1.39e3, 4.26
1.39e3, 4.28
1.39e3, 4.31
1.39e3, 4.33
1.39e3, 4.34
1.39e3, 4.37
1.39e3, 4.38
1.39e3, 4.39
1.39e3, 4.4
1.39e3, 4.4
1.39e3, 4.4
1.39e3, 4.4
1.39e3, 4.4
1.39e3, 4.41
1.4e3, 4.41
1.4e3, 4.41
1.4e3, 4.41
1.4e3, 4.41
1.4e3, 4.4
1.4e3, 4.4
1.4e3, 4.39
1.4e3, 4.38
1.4e3, 4.38
1.4e3, 4.39
1.4e3, 4.39
1.4e3, 4.39
1.4e3, 4.39
1.4e3, 4.39
1.4e3, 4.38
1.4e3, 4.37
1.4e3, 4.37
1.4e3, 4.34
